TITLE	
DATA TYPE	ULTRAVIOLET SPECTRUM
ORIGIN	JASCO
OWNER	
DATE	20/03/13
TIME	14:49:33
SPECTROMETER/DATA SYSTEM	
LOCALE	1033
RESOLUTION	
DELTAX	-1
XUNITS	NANOMETERS
YUNITS	ABSORBANCE
FIRSTX	  700.0000
LASTX	  300.0000
NPOINTS	     401
FIRSTY	    -0.00661
MAXY	     0.18498
MINY	    -0.00676
XYDATA
700.0000	-0.00660509
699.0000	-0.0066058
698.0000	-0.00662974
697.0000	-0.00664269
696.0000	-0.00661524
695.0000	-0.00660288
694.0000	-0.00663887
693.0000	-0.00662073
692.0000	-0.00658831
691.0000	-0.00660861
690.0000	-0.00665839
689.0000	-0.0066609
688.0000	-0.00665183
687.0000	-0.00665368
686.0000	-0.00665099
685.0000	-0.00665034
684.0000	-0.00661076
683.0000	-0.00660419
682.0000	-0.00664514
681.0000	-0.00665583
680.0000	-0.00668275
679.0000	-0.00670669
678.0000	-0.00669117
677.0000	-0.00664765
676.0000	-0.00664061
675.0000	-0.0066735
674.0000	-0.00669093
673.0000	-0.00672292
672.0000	-0.00672346
671.0000	-0.00671749
670.0000	-0.00671176
669.0000	-0.00667809
668.0000	-0.00668024
667.0000	-0.00670042
666.0000	-0.00673182
665.0000	-0.00672268
664.0000	-0.00667224
663.0000	-0.00666066
662.0000	-0.00668818
661.0000	-0.00669105
660.0000	-0.00667194
659.0000	-0.00668394
658.0000	-0.00668776
657.0000	-0.00668167
656.0000	-0.0066812
655.0000	-0.00669767
654.0000	-0.00670084
653.0000	-0.00673176
652.0000	-0.00675611
651.0000	-0.00669093
650.0000	-0.00665177
649.0000	-0.00666848
648.0000	-0.00669296
647.0000	-0.00670794
646.0000	-0.00672782
645.0000	-0.00672322
644.0000	-0.00667332
643.0000	-0.00665004
642.0000	-0.0066932
641.0000	-0.00670525
640.0000	-0.0067003
639.0000	-0.00670758
638.0000	-0.00676053
637.0000	-0.00676495
636.0000	-0.00669379
635.0000	-0.00669714
634.0000	-0.00670352
633.0000	-0.00673074
632.0000	-0.00674686
631.0000	-0.00671289
630.0000	-0.006692
629.0000	-0.00667451
628.0000	-0.0066212
627.0000	-0.00662246
626.0000	-0.00668323
625.0000	-0.00670687
624.0000	-0.00667994
623.0000	-0.00664926
622.0000	-0.00665284
621.0000	-0.0066566
620.0000	-0.00665577
619.0000	-0.00667141
618.0000	-0.00670764
617.0000	-0.00671092
616.0000	-0.00668299
615.0000	-0.00668412
614.0000	-0.00668167
613.0000	-0.00668394
612.0000	-0.00666615
611.0000	-0.00664084
610.0000	-0.00665869
609.0000	-0.00669099
608.0000	-0.00669749
607.0000	-0.00667911
606.0000	-0.00663702
605.0000	-0.00659064
604.0000	-0.00660885
603.0000	-0.00665821
602.0000	-0.00663183
601.0000	-0.00658348
600.0000	-0.00660736
599.0000	-0.00662694
598.0000	-0.00662879
597.0000	-0.00668717
596.0000	-0.00672889
595.0000	-0.00669618
594.0000	-0.00668478
593.0000	-0.00670543
592.0000	-0.00673522
591.0000	-0.00673128
590.0000	-0.00669851
589.0000	-0.0066295
588.0000	-0.0066058
587.0000	-0.00665839
586.0000	-0.00663535
585.0000	-0.00659643
584.0000	-0.00661553
583.0000	-0.00666597
582.0000	-0.00668579
581.0000	-0.00667194
580.0000	-0.0066698
579.0000	-0.00667224
578.0000	-0.00662425
577.0000	-0.00662276
576.0000	-0.00663279
575.0000	-0.00661374
574.0000	-0.00662389
573.0000	-0.00661917
572.0000	-0.00662544
571.0000	-0.00664407
570.0000	-0.00664723
569.0000	-0.00663702
568.0000	-0.00665732
567.0000	-0.00664634
566.0000	-0.00662532
565.0000	-0.00661995
564.0000	-0.00659954
563.0000	-0.00658019
562.0000	-0.0065627
561.0000	-0.00656127
560.0000	-0.00650576
559.0000	-0.00644147
558.0000	-0.00640422
557.0000	-0.00635479
556.0000	-0.00632285
555.0000	-0.006228
554.0000	-0.00611106
553.0000	-0.00607088
552.0000	-0.00599788
551.0000	-0.00585426
550.0000	-0.00572824
549.0000	-0.00554856
548.0000	-0.0053739
547.0000	-0.00518688
546.0000	-0.0049786
545.0000	-0.00475577
544.0000	-0.00443598
543.0000	-0.00410426
542.0000	-0.00378233
541.0000	-0.00339999
540.0000	-0.00294912
539.0000	-0.00246083
538.0000	-0.00192907
537.0000	-0.00132897
536.0000	-0.000681288
535.0000	5.42619E-005
534.0000	0.000919766
533.0000	0.00180395
532.0000	0.00270593
531.0000	0.00366074
530.0000	0.00474472
529.0000	0.00586727
528.0000	0.00696403
527.0000	0.00820513
526.0000	0.0094941
525.0000	0.0107787
524.0000	0.0121083
523.0000	0.013535
522.0000	0.0150005
521.0000	0.0163613
520.0000	0.017782
519.0000	0.0192684
518.0000	0.0206656
517.0000	0.0220142
516.0000	0.0233859
515.0000	0.0246932
514.0000	0.0259017
513.0000	0.026999
512.0000	0.0279698
511.0000	0.0288775
510.0000	0.0297679
509.0000	0.0305789
508.0000	0.0311869
507.0000	0.0315926
506.0000	0.0319375
505.0000	0.0321534
504.0000	0.0322092
503.0000	0.0321255
502.0000	0.0319399
501.0000	0.0317705
500.0000	0.0316614
499.0000	0.0312037
498.0000	0.0306201
497.0000	0.0300239
496.0000	0.0292905
495.0000	0.0284456
494.0000	0.0275815
493.0000	0.0266626
492.0000	0.0257798
491.0000	0.0248679
490.0000	0.0239675
489.0000	0.0231495
488.0000	0.0222396
487.0000	0.0213689
486.0000	0.0205851
485.0000	0.019857
484.0000	0.0192507
483.0000	0.0186968
482.0000	0.0181701
481.0000	0.0178258
480.0000	0.0175632
479.0000	0.0173005
478.0000	0.0171713
477.0000	0.0170933
476.0000	0.0170859
475.0000	0.0171148
474.0000	0.0172112
473.0000	0.0175003
472.0000	0.0177515
471.0000	0.0180396
470.0000	0.0184698
469.0000	0.0187603
468.0000	0.0191062
467.0000	0.0195596
466.0000	0.0198954
465.0000	0.0202525
464.0000	0.0206225
463.0000	0.0210366
462.0000	0.0215014
461.0000	0.0218311
460.0000	0.0221023
459.0000	0.022417
458.0000	0.0226131
457.0000	0.0228951
456.0000	0.0233643
455.0000	0.0235418
454.0000	0.0236226
453.0000	0.0238594
452.0000	0.0241058
451.0000	0.0241737
450.0000	0.0241963
449.0000	0.0243552
448.0000	0.0246185
447.0000	0.0248637
446.0000	0.0249025
445.0000	0.0250157
444.0000	0.0252206
443.0000	0.0253887
442.0000	0.0255842
441.0000	0.0257718
440.0000	0.0261229
439.0000	0.0264589
438.0000	0.0266487
437.0000	0.0271149
436.0000	0.0275757
435.0000	0.027881
434.0000	0.0283632
433.0000	0.0290381
432.0000	0.0296796
431.0000	0.0302258
430.0000	0.0308638
429.0000	0.0316734
428.0000	0.0325293
427.0000	0.0333513
426.0000	0.0341294
425.0000	0.034853
424.0000	0.0356404
423.0000	0.0365114
422.0000	0.0373685
421.0000	0.038187
420.0000	0.039217
419.0000	0.0404636
418.0000	0.0414459
417.0000	0.0420069
416.0000	0.0428719
415.0000	0.0438948
414.0000	0.0445891
413.0000	0.0453729
412.0000	0.0464577
411.0000	0.0472857
410.0000	0.0478139
409.0000	0.0486504
408.0000	0.0495425
407.0000	0.0502799
406.0000	0.0506565
405.0000	0.0508262
404.0000	0.0516738
403.0000	0.0526514
402.0000	0.0533015
401.0000	0.0542843
400.0000	0.052086
399.0000	0.0525859
398.0000	0.0528908
397.0000	0.0528806
396.0000	0.0527833
395.0000	0.0530665
394.0000	0.0532347
393.0000	0.0531857
392.0000	0.0530754
391.0000	0.0534746
390.0000	0.0539295
389.0000	0.0538741
388.0000	0.0540429
387.0000	0.0541451
386.0000	0.0543696
385.0000	0.0547143
384.0000	0.0548622
383.0000	0.0552291
382.0000	0.0556196
381.0000	0.0558832
380.0000	0.0563264
379.0000	0.0565512
378.0000	0.0567011
377.0000	0.0571495
376.0000	0.0576683
375.0000	0.0584104
374.0000	0.0588917
373.0000	0.0592386
372.0000	0.0596094
371.0000	0.0597689
370.0000	0.0621563
369.0000	0.0622376
368.0000	0.0626303
367.0000	0.0628947
366.0000	0.0637263
365.0000	0.0640566
364.0000	0.063855
363.0000	0.0651152
362.0000	0.065696
361.0000	0.06602
360.0000	0.0672507
359.0000	0.0679394
358.0000	0.0685417
357.0000	0.0695332
356.0000	0.0704665
355.0000	0.0713363
354.0000	0.0726141
353.0000	0.0738643
352.0000	0.0745389
351.0000	0.075516
350.0000	0.0767593
349.0000	0.0777901
348.0000	0.0787538
347.0000	0.0799013
346.0000	0.0810592
345.0000	0.0819006
344.0000	0.0826146
343.0000	0.0842234
342.0000	0.0862984
341.0000	0.0884806
340.0000	0.0901303
339.0000	0.0913871
338.0000	0.0928457
337.0000	0.0952208
336.0000	0.098821
335.0000	0.0956121
334.0000	0.0956065
333.0000	0.102633
332.0000	0.106715
331.0000	0.109685
330.0000	0.11179
329.0000	0.11355
328.0000	0.115155
327.0000	0.116368
326.0000	0.118937
325.0000	0.12197
324.0000	0.124516
323.0000	0.126896
322.0000	0.129383
321.0000	0.132247
320.0000	0.134899
319.0000	0.138149
318.0000	0.140368
317.0000	0.142001
316.0000	0.144339
315.0000	0.146298
314.0000	0.147431
313.0000	0.149106
312.0000	0.151537
311.0000	0.154191
310.0000	0.156685
309.0000	0.158941
308.0000	0.161727
307.0000	0.164831
306.0000	0.168048
305.0000	0.171032
304.0000	0.173458
303.0000	0.176388
302.0000	0.17965
301.0000	0.182175
300.0000	0.184985

##### Extended Information
[Comments]
Sample name
Comment
User
Division
Company	UMBC

[Detailed Information]
Creation date	3/13/2020 2:49 PM

Data array type	Linear data array
Horizontal axis	Wavelength [nm]
Vertical axis	Abs
Start	700 nm
End	300 nm
Data interval	1 nm
Data points	401     

[Measurement Information]
Instrument name	V-730
Model name	V-730
Serial No.	A076561798

Measurement date	3/13/2020 2:49 PM

Photometric mode	Abs
Measurement range	700 - 300 nm
Data interval	1 nm
Bandwidth	1.0 nm
Response	0.06 sec
Scan speed	2000 nm/min
Change source at	330 nm
Light source	D2/WI
Filter exchange	Step
Correction	Baseline

