TITLE	
DATA TYPE	ULTRAVIOLET SPECTRUM
ORIGIN	JASCO
OWNER	
DATE	20/03/13
TIME	15:23:53
SPECTROMETER/DATA SYSTEM	
LOCALE	1033
RESOLUTION	
DELTAX	-1
XUNITS	NANOMETERS
YUNITS	ABSORBANCE
FIRSTX	  700.0000
LASTX	  300.0000
NPOINTS	     401
FIRSTY	    -0.00593
MAXY	     0.49724
MINY	    -0.00649
XYDATA
700.0000	-0.00592792
699.0000	-0.0059706
698.0000	-0.00597543
697.0000	-0.00598642
696.0000	-0.00597764
695.0000	-0.00593395
694.0000	-0.00597758
693.0000	-0.00599871
692.0000	-0.00600176
691.0000	-0.00602928
690.0000	-0.00604068
689.0000	-0.00605363
688.0000	-0.00604581
687.0000	-0.00606271
686.0000	-0.00607142
685.0000	-0.00605829
684.0000	-0.0060334
683.0000	-0.00602426
682.0000	-0.00608999
681.0000	-0.00613906
680.0000	-0.00612336
679.0000	-0.00609375
678.0000	-0.00608796
677.0000	-0.00610545
676.0000	-0.00611512
675.0000	-0.00613816
674.0000	-0.00616478
673.0000	-0.00617971
672.0000	-0.00618574
671.0000	-0.00619672
670.0000	-0.00618311
669.0000	-0.00616508
668.0000	-0.00617654
667.0000	-0.00618251
666.0000	-0.00619678
665.0000	-0.00621194
664.0000	-0.00620782
663.0000	-0.00620997
662.0000	-0.0062154
661.0000	-0.00622364
660.0000	-0.00622681
659.0000	-0.00624591
658.0000	-0.0062508
657.0000	-0.00627379
656.0000	-0.00626394
655.0000	-0.00623218
654.0000	-0.00625844
653.0000	-0.00628298
652.0000	-0.00628674
651.0000	-0.00626788
650.0000	-0.00630262
649.0000	-0.00632082
648.0000	-0.00630489
647.0000	-0.00632632
646.0000	-0.00634536
645.0000	-0.0063373
644.0000	-0.00633861
643.0000	-0.00636553
642.0000	-0.00638619
641.0000	-0.0063727
640.0000	-0.00635968
639.0000	-0.00636225
638.0000	-0.00637777
637.0000	-0.00638971
636.0000	-0.00638219
635.0000	-0.00640607
634.0000	-0.00642123
633.0000	-0.00642427
632.0000	-0.00641598
631.0000	-0.00639473
630.0000	-0.00640338
629.0000	-0.00641538
628.0000	-0.00639526
627.0000	-0.006373
626.0000	-0.00637509
625.0000	-0.00642415
624.0000	-0.006482
623.0000	-0.0064574
622.0000	-0.00641669
621.0000	-0.00639944
620.0000	-0.0064235
619.0000	-0.00647418
618.0000	-0.0064888
617.0000	-0.00645167
616.0000	-0.00642589
615.0000	-0.00645531
614.0000	-0.0064546
613.0000	-0.00644678
612.0000	-0.00644403
611.0000	-0.00642535
610.0000	-0.00644648
609.0000	-0.00645979
608.0000	-0.00644117
607.0000	-0.00645633
606.0000	-0.00646576
605.0000	-0.00644535
604.0000	-0.00641616
603.0000	-0.00638822
602.0000	-0.0063644
601.0000	-0.00635634
600.0000	-0.0063521
599.0000	-0.00631867
598.0000	-0.00627146
597.0000	-0.00623164
596.0000	-0.00618162
595.0000	-0.00607136
594.0000	-0.00593436
593.0000	-0.00585724
592.0000	-0.00579355
591.0000	-0.00563864
590.0000	-0.00542094
589.0000	-0.00518109
588.0000	-0.00494386
587.0000	-0.00467166
586.0000	-0.00429224
585.0000	-0.00387749
584.0000	-0.00343665
583.0000	-0.00295993
582.0000	-0.00244525
581.0000	-0.00178414
580.0000	-0.000991876
579.0000	-0.000204452
578.0000	0.000672036
577.0000	0.00168212
576.0000	0.0028175
575.0000	0.00409012
574.0000	0.00544762
573.0000	0.00690833
572.0000	0.00843728
571.0000	0.0100924
570.0000	0.0119635
569.0000	0.0139372
568.0000	0.0159793
567.0000	0.0182257
566.0000	0.0206718
565.0000	0.0232419
564.0000	0.0259794
563.0000	0.0288249
562.0000	0.0317549
561.0000	0.0347515
560.0000	0.0378289
559.0000	0.0410064
558.0000	0.0441272
557.0000	0.0472095
556.0000	0.0502693
555.0000	0.0532181
554.0000	0.0560239
553.0000	0.0587087
552.0000	0.0612025
551.0000	0.0634874
550.0000	0.0655494
549.0000	0.0673288
548.0000	0.0687998
547.0000	0.0699685
546.0000	0.0708662
545.0000	0.0715299
544.0000	0.0719192
543.0000	0.0720211
542.0000	0.0718694
541.0000	0.0715058
540.0000	0.0710086
539.0000	0.0703438
538.0000	0.0694605
537.0000	0.0684798
536.0000	0.067396
535.0000	0.0662657
534.0000	0.0651537
533.0000	0.0639787
532.0000	0.062735
531.0000	0.061466
530.0000	0.0602364
529.0000	0.0590295
528.0000	0.0578246
527.0000	0.0566733
526.0000	0.0555573
525.0000	0.0544436
524.0000	0.0533277
523.0000	0.0522906
522.0000	0.051318
521.0000	0.0503209
520.0000	0.0494532
519.0000	0.0486978
518.0000	0.0479885
517.0000	0.0473534
516.0000	0.0468183
515.0000	0.0463844
514.0000	0.0460227
513.0000	0.0457178
512.0000	0.0455073
511.0000	0.045338
510.0000	0.0452495
509.0000	0.0453078
508.0000	0.045328
507.0000	0.0454131
506.0000	0.0457162
505.0000	0.0460087
504.0000	0.0463275
503.0000	0.0467199
502.0000	0.0471527
501.0000	0.0477213
500.0000	0.0483934
499.0000	0.0490098
498.0000	0.0497001
497.0000	0.0504457
496.0000	0.0511315
495.0000	0.051808
494.0000	0.0525905
493.0000	0.053365
492.0000	0.0541612
491.0000	0.0548828
490.0000	0.055577
489.0000	0.0564424
488.0000	0.0571229
487.0000	0.0578327
486.0000	0.0586215
485.0000	0.0594002
484.0000	0.060217
483.0000	0.0609919
482.0000	0.0618266
481.0000	0.0627401
480.0000	0.0636625
479.0000	0.064523
478.0000	0.0654539
477.0000	0.0664791
476.0000	0.0674337
475.0000	0.0684219
474.0000	0.0695809
473.0000	0.0708022
472.0000	0.0719616
471.0000	0.073193
470.0000	0.074483
469.0000	0.0757562
468.0000	0.0771179
467.0000	0.0786337
466.0000	0.0801807
465.0000	0.0818077
464.0000	0.0834824
463.0000	0.0851583
462.0000	0.0868547
461.0000	0.0884001
460.0000	0.090197
459.0000	0.09209
458.0000	0.0938078
457.0000	0.0955285
456.0000	0.0972969
455.0000	0.0989011
454.0000	0.100366
453.0000	0.102027
452.0000	0.1037
451.0000	0.105121
450.0000	0.106549
449.0000	0.108003
448.0000	0.109247
447.0000	0.110673
446.0000	0.112012
445.0000	0.113132
444.0000	0.114204
443.0000	0.115338
442.0000	0.116461
441.0000	0.117239
440.0000	0.118102
439.0000	0.118845
438.0000	0.11945
437.0000	0.120193
436.0000	0.120773
435.0000	0.121243
434.0000	0.121784
433.0000	0.122293
432.0000	0.12263
431.0000	0.122862
430.0000	0.123266
429.0000	0.123648
428.0000	0.123911
427.0000	0.124165
426.0000	0.124285
425.0000	0.124779
424.0000	0.125182
423.0000	0.125184
422.0000	0.125538
421.0000	0.12601
420.0000	0.126251
419.0000	0.126859
418.0000	0.127621
417.0000	0.128163
416.0000	0.128817
415.0000	0.129217
414.0000	0.129671
413.0000	0.130579
412.0000	0.131182
411.0000	0.131928
410.0000	0.133141
409.0000	0.134406
408.0000	0.135721
407.0000	0.136437
406.0000	0.137019
405.0000	0.137806
404.0000	0.139359
403.0000	0.14078
402.0000	0.142102
401.0000	0.144691
400.0000	0.140293
399.0000	0.141407
398.0000	0.142586
397.0000	0.144024
396.0000	0.145408
395.0000	0.146422
394.0000	0.14754
393.0000	0.148881
392.0000	0.150508
391.0000	0.1524
390.0000	0.153907
389.0000	0.155267
388.0000	0.156766
387.0000	0.158324
386.0000	0.159986
385.0000	0.161561
384.0000	0.163401
383.0000	0.165412
382.0000	0.167162
381.0000	0.168903
380.0000	0.170838
379.0000	0.172895
378.0000	0.174864
377.0000	0.176809
376.0000	0.178502
375.0000	0.180664
374.0000	0.182841
373.0000	0.184685
372.0000	0.186859
371.0000	0.18868
370.0000	0.196635
369.0000	0.198005
368.0000	0.199569
367.0000	0.201304
366.0000	0.202357
365.0000	0.203798
364.0000	0.20556
363.0000	0.20847
362.0000	0.210721
361.0000	0.212236
360.0000	0.214423
359.0000	0.216263
358.0000	0.218594
357.0000	0.221073
356.0000	0.223335
355.0000	0.225773
354.0000	0.228441
353.0000	0.231292
352.0000	0.233474
351.0000	0.235644
350.0000	0.238332
349.0000	0.241195
348.0000	0.243928
347.0000	0.246448
346.0000	0.249617
345.0000	0.252145
344.0000	0.254485
343.0000	0.257504
342.0000	0.260785
341.0000	0.265119
340.0000	0.268794
339.0000	0.272671
338.0000	0.276546
337.0000	0.281067
336.0000	0.286987
335.0000	0.286923
334.0000	0.289737
333.0000	0.300066
332.0000	0.307517
331.0000	0.313196
330.0000	0.315127
329.0000	0.319296
328.0000	0.324005
327.0000	0.328172
326.0000	0.332577
325.0000	0.336991
324.0000	0.342635
323.0000	0.348828
322.0000	0.355127
321.0000	0.360508
320.0000	0.365116
319.0000	0.371483
318.0000	0.377123
317.0000	0.38214
316.0000	0.387463
315.0000	0.392393
314.0000	0.397329
313.0000	0.40267
312.0000	0.408001
311.0000	0.414169
310.0000	0.420555
309.0000	0.426709
308.0000	0.433848
307.0000	0.441614
306.0000	0.448708
305.0000	0.456059
304.0000	0.464289
303.0000	0.472116
302.0000	0.480419
301.0000	0.488953
300.0000	0.497239

##### Extended Information
[Comments]
Sample name
Comment
User
Division
Company	UMBC

[Detailed Information]
Creation date	3/13/2020 3:23 PM

Data array type	Linear data array
Horizontal axis	Wavelength [nm]
Vertical axis	Abs
Start	700 nm
End	300 nm
Data interval	1 nm
Data points	401     

[Measurement Information]
Instrument name	V-730
Model name	V-730
Serial No.	A076561798

Measurement date	3/13/2020 3:23 PM

Photometric mode	Abs
Measurement range	700 - 300 nm
Data interval	1 nm
Bandwidth	1.0 nm
Response	0.06 sec
Scan speed	2000 nm/min
Change source at	330 nm
Light source	D2/WI
Filter exchange	Step
Correction	Baseline

